Nanometers	Counts
294.1	0.0
294.7	0.0
295.2	0.0
295.8	0.0
296.3	0.0
296.9	0.0
297.4	0.0
297.9	0.0
298.5	0.0
299.0	0.0
299.6	0.0
300.1	0.0
300.7	0.0
301.2	0.0
301.7	0.0
302.3	0.0
302.8	0.0
303.4	0.0
303.9	0.0
304.5	0.0
305.0	0.0
305.6	0.0
306.1	0.0
306.6	0.0
307.2	0.0
307.7	0.0
308.3	0.0
308.8	0.0
309.4	0.0
309.9	0.0
310.5	0.0
311.0	0.0
311.5	0.0
312.1	0.0
312.6	0.0
313.2	0.0
313.7	0.0
314.3	0.0
314.8	0.0
315.3	0.0
315.9	0.0
316.4	0.0
317.0	0.0
317.5	0.0
318.1	0.0
318.6	0.0
319.2	0.0
319.7	0.1
320.2	0.1
320.8	0.8
321.3	0.9
321.9	1.5
322.4	2.2
323.0	3.2
323.5	4.0
324.0	6.8
324.6	8.5
325.1	12.2
325.7	16.3
326.2	21.4
326.8	27.2
327.3	35.6
327.9	42.5
328.4	55.0
328.9	66.6
329.5	81.9
330.0	97.6
330.6	115.9
331.1	135.7
331.7	159.0
332.2	180.8
332.8	209.7
333.3	234.1
333.8	261.8
334.4	288.0
334.9	314.1
335.5	337.6
336.0	363.9
336.6	382.2
337.1	401.6
337.6	414.7
338.2	425.1
338.7	429.6
339.3	433.3
339.8	431.7
340.4	429.6
340.9	421.0
341.5	412.2
342.0	398.0
342.5	383.6
343.1	366.1
343.6	349.3
344.2	330.4
344.7	314.0
345.3	293.9
345.8	276.8
346.4	256.7
346.9	238.7
347.4	219.0
348.0	200.7
348.5	181.3
349.1	163.8
349.6	144.2
350.2	129.1
350.7	113.8
351.2	101.9
351.8	91.3
352.3	83.0
352.9	74.5
353.4	69.9
354.0	63.5
354.5	60.3
355.1	55.4
355.6	52.8
356.1	50.1
356.7	48.9
357.2	46.0
357.8	45.5
358.3	42.7
358.9	42.8
359.4	41.1
359.9	40.7
360.5	39.6
361.0	39.1
361.6	37.6
362.1	37.9
362.7	36.2
363.2	35.8
363.8	34.2
364.3	33.6
364.8	32.2
365.4	31.2
365.9	28.6
366.5	27.9
367.0	25.4
367.6	25.0
368.1	22.9
368.7	22.2
369.2	20.7
369.7	19.9
370.3	18.3
370.8	18.3
371.4	16.3
371.9	16.4
372.5	14.9
373.0	15.2
373.5	14.4
374.1	14.3
374.6	13.7
375.2	13.9
375.7	13.0
376.3	13.5
376.8	13.1
377.4	13.0
377.9	12.7
378.4	12.9
379.0	12.3
379.5	12.7
380.1	11.7
380.6	12.0
381.2	11.4
381.7	11.7
382.3	11.0
382.8	11.0
383.3	10.4
383.9	10.7
384.4	9.6
385.0	10.1
385.5	9.3
386.1	9.6
386.6	9.1
387.1	8.9
387.7	8.4
388.2	8.5
388.8	7.4
389.3	7.8
389.9	7.0
390.4	6.9
391.0	6.4
391.5	6.5
392.0	5.7
392.6	5.9
393.1	5.3
393.7	5.7
394.2	5.2
394.8	5.4
395.3	4.7
395.8	4.7
396.4	4.4
396.9	4.7
397.5	3.8
398.0	4.1
398.6	3.3
399.1	3.5
399.7	3.1
400.2	3.2
400.7	2.7
401.3	3.0
401.8	2.2
402.4	2.5
402.9	1.9
403.5	2.1
404.0	1.7
404.6	1.6
405.1	1.2
405.6	1.3
406.2	0.7
406.7	1.0
407.3	0.7
407.8	0.9
408.4	0.5
408.9	0.6
409.4	0.2
410.0	0.3
410.5	0.0
411.1	0.1
411.6	0.0
412.2	0.0
412.7	0.0
413.3	0.0
413.8	0.0
414.3	0.0
414.9	0.0
415.4	0.0
416.0	0.0
416.5	0.0
417.1	0.0
417.6	0.0
418.1	0.0
418.7	0.0
419.2	0.0
419.8	0.0
420.3	0.0
420.9	0.0
421.4	0.0
422.0	0.0
422.5	0.0
423.0	0.0
423.6	0.0
424.1	0.0
424.7	0.0
425.2	0.0
425.8	0.0
426.3	0.0
426.9	0.0
427.4	0.0
427.9	0.0
428.5	0.0
429.0	0.0
429.6	0.0
430.1	0.0
430.7	0.0
431.2	0.0
431.7	0.0
432.3	0.0
432.8	0.0
433.4	0.0
433.9	0.0
434.5	0.0
435.0	0.0
435.6	0.0
436.1	0.0
436.6	0.0
437.2	0.0
437.7	0.0
438.3	0.0
438.8	0.0
439.4	0.0
439.9	0.0
440.5	0.0
441.0	0.0
441.5	0.0
442.1	0.0
442.6	0.0
443.2	0.0
443.7	0.0
444.3	0.0
444.8	0.0
445.3	0.0
445.9	0.0
446.4	0.0
447.0	0.0
447.5	0.0
448.1	0.0
448.6	0.0
449.2	0.0
449.7	0.0
450.2	0.0
450.8	0.0
451.3	0.0
451.9	0.0
452.4	0.0
453.0	0.0
453.5	0.0
454.0	0.0
454.6	0.0
455.1	0.0
455.7	0.0
456.2	0.0
456.8	0.0
457.3	0.0
457.9	0.0
458.4	0.0
458.9	0.0
459.5	0.0
460.0	0.0
460.6	0.0
461.1	0.0
461.7	0.0
462.2	0.0
462.8	0.0
463.3	0.0
463.8	0.0
464.4	0.0
464.9	0.0
465.5	0.0
466.0	0.0
