Nanometers	Counts
294.1	0.0
294.7	0.0
295.2	0.0
295.8	0.0
296.3	0.0
296.9	0.0
297.4	0.0
297.9	0.0
298.5	0.0
299.0	0.0
299.6	0.0
300.1	0.0
300.7	0.0
301.2	0.0
301.7	0.0
302.3	0.0
302.8	0.0
303.4	0.0
303.9	0.0
304.5	0.0
305.0	0.0
305.6	0.0
306.1	0.0
306.6	0.0
307.2	0.0
307.7	0.0
308.3	0.0
308.8	0.0
309.4	0.0
309.9	0.0
310.5	0.0
311.0	0.0
311.5	0.0
312.1	0.0
312.6	0.0
313.2	0.0
313.7	0.0
314.3	0.0
314.8	0.0
315.3	0.0
315.9	0.0
316.4	0.0
317.0	0.0
317.5	0.0
318.1	0.0
318.6	0.0
319.2	0.0
319.7	0.1
320.2	0.2
320.8	0.7
321.3	0.7
321.9	1.6
322.4	2.2
323.0	3.4
323.5	4.4
324.0	7.2
324.6	8.8
325.1	13.2
325.7	17.4
326.2	22.3
326.8	28.4
327.3	37.2
327.9	45.5
328.4	57.5
328.9	69.4
329.5	85.4
330.0	102.2
330.6	120.5
331.1	140.3
331.7	163.8
332.2	187.1
332.8	215.7
333.3	240.3
333.8	267.4
334.4	294.6
334.9	321.2
335.5	344.4
336.0	370.3
336.6	388.8
337.1	407.8
337.6	421.5
338.2	432.1
338.7	437.1
339.3	440.9
339.8	438.8
340.4	437.0
340.9	428.8
341.5	420.2
342.0	406.7
342.5	392.0
343.1	374.6
343.6	358.4
344.2	338.9
344.7	322.3
345.3	302.8
345.8	285.5
346.4	265.0
346.9	246.3
347.4	227.6
348.0	208.9
348.5	187.2
349.1	170.8
349.6	150.8
350.2	134.6
350.7	119.2
351.2	106.4
351.8	95.2
352.3	86.7
352.9	78.1
353.4	73.0
354.0	66.7
354.5	63.7
355.1	58.6
355.6	56.1
356.1	53.4
356.7	51.6
357.2	49.0
357.8	48.3
358.3	45.9
358.9	46.1
359.4	43.8
359.9	43.4
360.5	42.5
361.0	42.2
361.6	40.9
362.1	41.1
362.7	39.1
363.2	38.6
363.8	36.9
364.3	36.1
364.8	34.0
365.4	33.0
365.9	31.0
366.5	30.3
367.0	27.7
367.6	27.0
368.1	24.8
368.7	24.0
369.2	22.5
369.7	21.6
370.3	20.0
370.8	19.7
371.4	18.1
371.9	18.1
372.5	16.8
373.0	16.6
373.5	15.7
374.1	15.8
374.6	15.2
375.2	15.1
375.7	14.2
376.3	14.8
376.8	14.2
377.4	14.3
377.9	14.0
378.4	14.0
379.0	13.5
379.5	13.9
380.1	12.8
380.6	13.3
381.2	12.5
381.7	12.8
382.3	12.2
382.8	12.2
383.3	11.6
383.9	12.1
384.4	11.2
385.0	11.7
385.5	10.6
386.1	10.9
386.6	10.1
387.1	10.0
387.7	9.2
388.2	9.4
388.8	8.4
389.3	9.0
389.9	8.0
390.4	8.1
391.0	7.3
391.5	7.3
392.0	6.5
392.6	6.9
393.1	6.2
393.7	6.6
394.2	5.8
394.8	5.9
395.3	5.3
395.8	5.4
396.4	4.9
396.9	5.4
397.5	4.5
398.0	4.6
398.6	3.9
399.1	4.0
399.7	3.6
400.2	3.8
400.7	3.4
401.3	3.4
401.8	2.6
402.4	3.1
402.9	2.5
403.5	2.5
404.0	2.2
404.6	2.2
405.1	1.8
405.6	1.9
406.2	1.2
406.7	1.6
407.3	1.1
407.8	1.2
408.4	0.8
408.9	0.9
409.4	0.5
410.0	0.6
410.5	0.0
411.1	0.3
411.6	0.0
412.2	0.2
412.7	0.0
413.3	0.0
413.8	0.0
414.3	0.0
414.9	0.0
415.4	0.0
416.0	0.0
416.5	0.0
417.1	0.0
417.6	0.0
418.1	0.0
418.7	0.0
419.2	0.0
419.8	0.0
420.3	0.0
420.9	0.0
421.4	0.0
422.0	0.0
422.5	0.0
423.0	0.0
423.6	0.0
424.1	0.0
424.7	0.0
425.2	0.0
425.8	0.0
426.3	0.0
426.9	0.0
427.4	0.0
427.9	0.0
428.5	0.0
429.0	0.0
429.6	0.0
430.1	0.0
430.7	0.0
431.2	0.0
431.7	0.0
432.3	0.0
432.8	0.0
433.4	0.0
433.9	0.0
434.5	0.0
435.0	0.0
435.6	0.0
436.1	0.0
436.6	0.0
437.2	0.0
437.7	0.0
438.3	0.0
438.8	0.0
439.4	0.0
439.9	0.0
440.5	0.0
441.0	0.0
441.5	0.0
442.1	0.0
442.6	0.0
443.2	0.0
443.7	0.0
444.3	0.0
444.8	0.0
445.3	0.0
445.9	0.0
446.4	0.0
447.0	0.0
447.5	0.0
448.1	0.0
448.6	0.0
449.2	0.0
449.7	0.0
450.2	0.0
450.8	0.0
451.3	0.0
451.9	0.0
452.4	0.0
453.0	0.0
453.5	0.0
454.0	0.0
454.6	0.0
455.1	0.0
455.7	0.0
456.2	0.0
456.8	0.0
457.3	0.0
457.9	0.0
458.4	0.0
458.9	0.0
459.5	0.0
460.0	0.0
460.6	0.0
461.1	0.0
461.7	0.0
462.2	0.0
462.8	0.0
463.3	0.0
463.8	0.0
464.4	0.0
464.9	0.0
465.5	0.0
466.0	0.0
